! ======================================================
! CREATE_SUBLEVELS and INTEGRATE_SUBLEVELS routines test
! ======================================================
! Dimensions; N_SUBLEVELS, N_LEVELS, N_ABSORBERS
    491     50      6
     Z(km)        PF(mb)        T(K)      H2O(ppmv)       O3(ppmv)      N2O(ppmv)       CO(ppmv)      CH4(ppmv)       N2(ppmv)
--------------------------------------------------------------------------------------------------------------------------------
     0.000    1013.0000000    288.200   7.745000E+03   2.660000E-02   3.200000E-01   1.500000E-01   1.700000E+00   7.810000E+05
     0.101    1000.9555852    287.550   7.577600E+03   2.687100E-02   3.200000E-01   1.495000E-01   1.700000E+00   7.810000E+05
     0.202     989.0543766    286.900   7.410200E+03   2.714200E-02   3.200000E-01   1.490000E-01   1.700000E+00   7.810000E+05
     0.303     977.2946715    286.250   7.242800E+03   2.741300E-02   3.200000E-01   1.485000E-01   1.700000E+00   7.810000E+05
     0.404     965.6747875    285.600   7.075400E+03   2.768400E-02   3.200000E-01   1.480000E-01   1.700000E+00   7.810000E+05
     0.504     954.1930622    284.950   6.908000E+03   2.795500E-02   3.200000E-01   1.475000E-01   1.700000E+00   7.810000E+05
     0.605     942.8478529    284.300   6.740600E+03   2.822600E-02   3.200000E-01   1.470000E-01   1.700000E+00   7.810000E+05
     0.705     931.6375363    283.650   6.573200E+03   2.849700E-02   3.200000E-01   1.465000E-01   1.700000E+00   7.810000E+05
     0.804     920.5605087    283.000   6.405800E+03   2.876800E-02   3.200000E-01   1.460000E-01   1.700000E+00   7.810000E+05
     0.904     909.6151852    282.350   6.238400E+03   2.903900E-02   3.200000E-01   1.455000E-01   1.700000E+00   7.810000E+05
     1.003     898.8000000    281.700   6.071000E+03   2.931000E-02   3.200000E-01   1.450000E-01   1.700000E+00   7.810000E+05
     1.105     887.8374707    281.050   5.927000E+03   2.961600E-02   3.200000E-01   1.444900E-01   1.700000E+00   7.810000E+05
     1.206     877.0086497    280.400   5.783000E+03   2.992200E-02   3.200000E-01   1.439800E-01   1.700000E+00   7.810000E+05
     1.307     866.3119063    279.750   5.639000E+03   3.022800E-02   3.200000E-01   1.434700E-01   1.700000E+00   7.810000E+05
     1.408     855.7456294    279.100   5.495000E+03   3.053400E-02   3.200000E-01   1.429600E-01   1.700000E+00   7.810000E+05
     1.509     845.3082278    278.450   5.351000E+03   3.084000E-02   3.200000E-01   1.424500E-01   1.700000E+00   7.810000E+05
     1.609     834.9981297    277.800   5.207000E+03   3.114600E-02   3.200000E-01   1.419400E-01   1.700000E+00   7.810000E+05
     1.709     824.8137822    277.150   5.063000E+03   3.145200E-02   3.200000E-01   1.414300E-01   1.700000E+00   7.810000E+05
     1.809     814.7536518    276.500   4.919000E+03   3.175800E-02   3.200000E-01   1.409200E-01   1.700000E+00   7.810000E+05
     1.909     804.8162232    275.850   4.775000E+03   3.206400E-02   3.200000E-01   1.404100E-01   1.700000E+00   7.810000E+05
     2.009     795.0000000    275.200   4.631000E+03   3.237000E-02   3.200000E-01   1.399000E-01   1.700000E+00   7.810000E+05
     2.110     785.0812523    274.550   4.486100E+03   3.245100E-02   3.200000E-01   1.394000E-01   1.700000E+00   7.810000E+05
     2.211     775.2862549    273.900   4.341200E+03   3.253200E-02   3.200000E-01   1.389000E-01   1.700000E+00   7.810000E+05
     2.312     765.6134640    273.250   4.196300E+03   3.261300E-02   3.200000E-01   1.384000E-01   1.700000E+00   7.810000E+05
     2.413     756.0613548    272.600   4.051400E+03   3.269400E-02   3.200000E-01   1.379000E-01   1.700000E+00   7.810000E+05
     2.514     746.6284216    271.950   3.906500E+03   3.277500E-02   3.200000E-01   1.374000E-01   1.700000E+00   7.810000E+05
     2.614     737.3131777    271.300   3.761600E+03   3.285600E-02   3.200000E-01   1.369000E-01   1.700000E+00   7.810000E+05
     2.714     728.1141545    270.650   3.616700E+03   3.293700E-02   3.200000E-01   1.364000E-01   1.700000E+00   7.810000E+05
     2.814     719.0299021    270.000   3.471800E+03   3.301800E-02   3.200000E-01   1.359000E-01   1.700000E+00   7.810000E+05
     2.914     710.0589887    269.350   3.326900E+03   3.309900E-02   3.200000E-01   1.354000E-01   1.700000E+00   7.810000E+05
     3.013     701.2000000    268.700   3.182000E+03   3.318000E-02   3.200000E-01   1.349000E-01   1.700000E+00   7.810000E+05
     3.114     692.2421965    268.050   3.079600E+03   3.324900E-02   3.200000E-01   1.345300E-01   1.700000E+00   7.810000E+05
     3.216     683.3988285    267.400   2.977200E+03   3.331800E-02   3.200000E-01   1.341600E-01   1.700000E+00   7.810000E+05
     3.317     674.6684343    266.750   2.874800E+03   3.338700E-02   3.200000E-01   1.337900E-01   1.700000E+00   7.810000E+05
     3.417     666.0495705    266.100   2.772400E+03   3.345600E-02   3.200000E-01   1.334200E-01   1.700000E+00   7.810000E+05
     3.518     657.5408124    265.450   2.670000E+03   3.352500E-02   3.200000E-01   1.330500E-01   1.700000E+00   7.810000E+05
     3.618     649.1407534    264.800   2.567600E+03   3.359400E-02   3.200000E-01   1.326800E-01   1.700000E+00   7.810000E+05
     3.718     640.8480048    264.150   2.465200E+03   3.366300E-02   3.200000E-01   1.323100E-01   1.700000E+00   7.810000E+05
     3.818     632.6611957    263.500   2.362800E+03   3.373200E-02   3.200000E-01   1.319400E-01   1.700000E+00   7.810000E+05
     3.917     624.5789728    262.850   2.260400E+03   3.380100E-02   3.200000E-01   1.315700E-01   1.700000E+00   7.810000E+05
     4.017     616.6000000    262.200   2.158000E+03   3.387000E-02   3.200000E-01   1.312000E-01   1.700000E+00   7.810000E+05
     4.118     608.5310435    261.550   2.081900E+03   3.425100E-02   3.200000E-01   1.311100E-01   1.700000E+00   7.810000E+05
     4.219     600.5676791    260.900   2.005800E+03   3.463200E-02   3.200000E-01   1.310200E-01   1.700000E+00   7.810000E+05
     4.320     592.7085250    260.250   1.929700E+03   3.501300E-02   3.200000E-01   1.309300E-01   1.700000E+00   7.810000E+05
     4.421     584.9522173    259.600   1.853600E+03   3.539400E-02   3.200000E-01   1.308400E-01   1.700000E+00   7.810000E+05
     4.521     577.2974104    258.950   1.777500E+03   3.577500E-02   3.200000E-01   1.307500E-01   1.700000E+00   7.810000E+05
     4.622     569.7427758    258.300   1.701400E+03   3.615600E-02   3.200000E-01   1.306600E-01   1.700000E+00   7.810000E+05
     4.722     562.2870028    257.650   1.625300E+03   3.653700E-02   3.200000E-01   1.305700E-01   1.700000E+00   7.810000E+05
     4.821     554.9287975    257.000   1.549200E+03   3.691800E-02   3.200000E-01   1.304800E-01   1.700000E+00   7.810000E+05
     4.921     547.6668833    256.350   1.473100E+03   3.729900E-02   3.200000E-01   1.303900E-01   1.700000E+00   7.810000E+05
     5.020     540.5000000    255.700   1.397000E+03   3.768000E-02   3.200000E-01   1.303000E-01   1.700000E+00   7.810000E+05
     5.121     533.2473756    255.050   1.349840E+03   3.802400E-02   3.200000E-01   1.301500E-01   1.700000E+00   7.810000E+05
     5.223     526.0920696    254.400   1.302680E+03   3.836800E-02   3.200000E-01   1.300000E-01   1.700000E+00   7.810000E+05
     5.324     519.0327760    253.750   1.255520E+03   3.871200E-02   3.200000E-01   1.298500E-01   1.700000E+00   7.810000E+05
     5.424     512.0682066    253.100   1.208360E+03   3.905600E-02   3.200000E-01   1.297000E-01   1.700000E+00   7.810000E+05
     5.525     505.1970903    252.450   1.161200E+03   3.940000E-02   3.200000E-01   1.295500E-01   1.700000E+00   7.810000E+05
     5.625     498.4181731    251.800   1.114040E+03   3.974400E-02   3.200000E-01   1.294000E-01   1.700000E+00   7.810000E+05
     5.725     491.7302178    251.150   1.066880E+03   4.008800E-02   3.200000E-01   1.292500E-01   1.700000E+00   7.810000E+05
     5.824     485.1320040    250.500   1.019720E+03   4.043200E-02   3.200000E-01   1.291000E-01   1.700000E+00   7.810000E+05
     5.924     478.6223274    249.850   9.725600E+02   4.077600E-02   3.200000E-01   1.289500E-01   1.700000E+00   7.810000E+05
     6.023     472.2000000    249.200   9.254000E+02   4.112000E-02   3.200000E-01   1.288000E-01   1.700000E+00   7.810000E+05
     6.125     465.7020312    248.550   8.900600E+02   4.201700E-02   3.200000E-01   1.283900E-01   1.699900E+00   7.810000E+05
     6.226     459.2934813    247.900   8.547200E+02   4.291400E-02   3.200000E-01   1.279800E-01   1.699800E+00   7.810000E+05
     6.327     452.9731198    247.250   8.193800E+02   4.381100E-02   3.200000E-01   1.275700E-01   1.699700E+00   7.810000E+05
     6.427     446.7397330    246.600   7.840400E+02   4.470800E-02   3.200000E-01   1.271600E-01   1.699600E+00   7.810000E+05
     6.528     440.5921243    245.950   7.487000E+02   4.560500E-02   3.200000E-01   1.267500E-01   1.699500E+00   7.810000E+05
     6.628     434.5291131    245.300   7.133600E+02   4.650200E-02   3.200000E-01   1.263400E-01   1.699400E+00   7.810000E+05
     6.728     428.5495354    244.650   6.780200E+02   4.739900E-02   3.200000E-01   1.259300E-01   1.699300E+00   7.810000E+05
     6.827     422.6522429    244.000   6.426800E+02   4.829600E-02   3.200000E-01   1.255200E-01   1.699200E+00   7.810000E+05
     6.927     416.8361033    243.350   6.073400E+02   4.919300E-02   3.200000E-01   1.251100E-01   1.699100E+00   7.810000E+05
     7.026     411.1000000    242.700   5.720000E+02   5.009000E-02   3.200000E-01   1.247000E-01   1.699000E+00   7.810000E+05
     7.127     405.2832756    242.050   5.514700E+02   5.104700E-02   3.200000E-01   1.240800E-01   1.698800E+00   7.810000E+05
     7.229     399.5488530    241.400   5.309400E+02   5.200400E-02   3.200000E-01   1.234600E-01   1.698600E+00   7.810000E+05
     7.330     393.8955677    240.750   5.104100E+02   5.296100E-02   3.200000E-01   1.228400E-01   1.698400E+00   7.810000E+05
     7.431     388.3222718    240.100   4.898800E+02   5.391800E-02   3.200000E-01   1.222200E-01   1.698200E+00   7.810000E+05
     7.531     382.8278334    239.450   4.693500E+02   5.487500E-02   3.200000E-01   1.216000E-01   1.698000E+00   7.810000E+05
     7.631     377.4111367    238.800   4.488200E+02   5.583200E-02   3.200000E-01   1.209800E-01   1.697800E+00   7.810000E+05
     7.731     372.0710818    238.150   4.282900E+02   5.678900E-02   3.200000E-01   1.203600E-01   1.697600E+00   7.810000E+05
     7.831     366.8065842    237.500   4.077600E+02   5.774600E-02   3.200000E-01   1.197400E-01   1.697400E+00   7.810000E+05
     7.931     361.6165749    236.850   3.872300E+02   5.870300E-02   3.200000E-01   1.191200E-01   1.697200E+00   7.810000E+05
     8.030     356.5000000    236.200   3.667000E+02   5.966000E-02   3.200000E-01   1.185000E-01   1.697000E+00   7.810000E+05
     8.131     351.3246744    235.550   3.458600E+02   6.286200E-02   3.199500E-01   1.175900E-01   1.696600E+00   7.810000E+05
     8.232     346.2244792    234.900   3.250200E+02   6.606400E-02   3.199000E-01   1.166800E-01   1.696200E+00   7.810000E+05
     8.333     341.1983237    234.250   3.041800E+02   6.926600E-02   3.198500E-01   1.157700E-01   1.695800E+00   7.810000E+05
     8.434     336.2451332    233.600   2.833400E+02   7.246800E-02   3.198000E-01   1.148600E-01   1.695400E+00   7.810000E+05
     8.534     331.3638484    232.950   2.625000E+02   7.567000E-02   3.197500E-01   1.139500E-01   1.695000E+00   7.810000E+05
     8.635     326.5534253    232.300   2.416600E+02   7.887200E-02   3.197000E-01   1.130400E-01   1.694600E+00   7.810000E+05
     8.734     321.8128354    231.650   2.208200E+02   8.207400E-02   3.196500E-01   1.121300E-01   1.694200E+00   7.810000E+05
     8.834     317.1410648    231.000   1.999800E+02   8.527600E-02   3.196000E-01   1.112200E-01   1.693800E+00   7.810000E+05
     8.933     312.5371145    230.350   1.791400E+02   8.847800E-02   3.195500E-01   1.103100E-01   1.693400E+00   7.810000E+05
     9.032     308.0000000    229.700   1.583000E+02   9.168000E-02   3.195000E-01   1.094000E-01   1.693000E+00   7.810000E+05
     9.134     303.4032526    229.060   1.494660E+02   9.564200E-02   3.193400E-01   1.084220E-01   1.692200E+00   7.810000E+05
     9.235     298.8751093    228.420   1.406320E+02   9.960400E-02   3.191800E-01   1.074440E-01   1.691400E+00   7.810000E+05
     9.336     294.4145464    227.780   1.317980E+02   1.035660E-01   3.190200E-01   1.064660E-01   1.690600E+00   7.810000E+05
     9.437     290.0205551    227.140   1.229640E+02   1.075280E-01   3.188600E-01   1.054880E-01   1.689800E+00   7.810000E+05
     9.537     285.6921420    226.500   1.141300E+02   1.114900E-01   3.187000E-01   1.045100E-01   1.689000E+00   7.810000E+05
     9.637     281.4283283    225.860   1.052960E+02   1.154520E-01   3.185400E-01   1.035320E-01   1.688200E+00   7.810000E+05
     9.737     277.2281499    225.220   9.646200E+01   1.194140E-01   3.183800E-01   1.025540E-01   1.687400E+00   7.810000E+05
     9.837     273.0906571    224.580   8.762800E+01   1.233760E-01   3.182200E-01   1.015760E-01   1.686600E+00   7.810000E+05
     9.936     269.0149143    223.940   7.879400E+01   1.273380E-01   3.180600E-01   1.005980E-01   1.685800E+00   7.810000E+05
    10.035     265.0000000    223.300   6.996000E+01   1.313000E-01   3.179000E-01   9.962000E-02   1.685000E+00   7.810000E+05
    10.137     260.9299147    222.650   6.657700E+01   1.396600E-01   3.175100E-01   9.862200E-02   1.684000E+00   7.810000E+05
    10.238     256.9223410    222.000   6.319400E+01   1.480200E-01   3.171200E-01   9.762400E-02   1.683000E+00   7.810000E+05
    10.339     252.9763190    221.350   5.981100E+01   1.563800E-01   3.167300E-01   9.662600E-02   1.682000E+00   7.810000E+05
    10.440     249.0909031    220.700   5.642800E+01   1.647400E-01   3.163400E-01   9.562800E-02   1.681000E+00   7.810000E+05
    10.540     245.2651626    220.050   5.304500E+01   1.731000E-01   3.159500E-01   9.463000E-02   1.680000E+00   7.810000E+05
    10.640     241.4981810    219.400   4.966200E+01   1.814600E-01   3.155600E-01   9.363200E-02   1.679000E+00   7.810000E+05
    10.740     237.7890557    218.750   4.627900E+01   1.898200E-01   3.151700E-01   9.263400E-02   1.678000E+00   7.810000E+05
    10.840     234.1368982    218.100   4.289600E+01   1.981800E-01   3.147800E-01   9.163600E-02   1.677000E+00   7.810000E+05
    10.939     230.5408334    217.450   3.951300E+01   2.065400E-01   3.143900E-01   9.063800E-02   1.676000E+00   7.810000E+05
    11.038     227.0000000    216.800   3.613000E+01   2.149000E-01   3.140000E-01   8.964000E-02   1.675000E+00   7.810000E+05
    11.138     223.4618781    216.790   3.442300E+01   2.243600E-01   3.135500E-01   8.849000E-02   1.673700E+00   7.810000E+05
    11.239     219.9789029    216.780   3.271600E+01   2.338200E-01   3.131000E-01   8.734000E-02   1.672400E+00   7.810000E+05
    11.339     216.5502149    216.770   3.100900E+01   2.432800E-01   3.126500E-01   8.619000E-02   1.671100E+00   7.810000E+05
    11.439     213.1749679    216.760   2.930200E+01   2.527400E-01   3.122000E-01   8.504000E-02   1.669800E+00   7.810000E+05
    11.539     209.8523290    216.750   2.759500E+01   2.622000E-01   3.117500E-01   8.389000E-02   1.668500E+00   7.810000E+05
    11.640     206.5814783    216.740   2.588800E+01   2.716600E-01   3.113000E-01   8.274000E-02   1.667200E+00   7.810000E+05
    11.740     203.3616084    216.730   2.418100E+01   2.811200E-01   3.108500E-01   8.159000E-02   1.665900E+00   7.810000E+05
    11.840     200.1919249    216.720   2.247400E+01   2.905800E-01   3.104000E-01   8.044000E-02   1.664600E+00   7.810000E+05
    11.941     197.0716454    216.710   2.076700E+01   3.000400E-01   3.099500E-01   7.929000E-02   1.663300E+00   7.810000E+05
    12.041     194.0000000    216.700   1.906000E+01   3.095000E-01   3.095000E-01   7.814000E-02   1.662000E+00   7.810000E+05
    12.141     190.9765351    216.700   1.823900E+01   3.170100E-01   3.090300E-01   7.670000E-02   1.660300E+00   7.810000E+05
    12.242     188.0001904    216.700   1.741800E+01   3.245200E-01   3.085600E-01   7.526000E-02   1.658600E+00   7.810000E+05
    12.342     185.0702318    216.700   1.659700E+01   3.320300E-01   3.080900E-01   7.382000E-02   1.656900E+00   7.810000E+05
    12.442     182.1859361    216.700   1.577600E+01   3.395400E-01   3.076200E-01   7.238000E-02   1.655200E+00   7.810000E+05
    12.542     179.3465918    216.700   1.495500E+01   3.470500E-01   3.071500E-01   7.094000E-02   1.653500E+00   7.810000E+05
    12.643     176.5514984    216.700   1.413400E+01   3.545600E-01   3.066800E-01   6.950000E-02   1.651800E+00   7.810000E+05
    12.743     173.7999661    216.700   1.331300E+01   3.620700E-01   3.062100E-01   6.806000E-02   1.650100E+00   7.810000E+05
    12.843     171.0913161    216.700   1.249200E+01   3.695800E-01   3.057400E-01   6.662000E-02   1.648400E+00   7.810000E+05
    12.944     168.4248800    216.700   1.167100E+01   3.770900E-01   3.052700E-01   6.518000E-02   1.646700E+00   7.810000E+05
    13.044     165.8000000    216.700   1.085000E+01   3.846000E-01   3.048000E-01   6.374000E-02   1.645000E+00   7.810000E+05
    13.144     163.2161234    216.700   1.035770E+01   3.964400E-01   3.043100E-01   6.239100E-02   1.643100E+00   7.810000E+05
    13.245     160.6725147    216.700   9.865400E+00   4.082800E-01   3.038200E-01   6.104200E-02   1.641200E+00   7.810000E+05
    13.345     158.1685464    216.700   9.373100E+00   4.201200E-01   3.033300E-01   5.969300E-02   1.639300E+00   7.810000E+05
    13.445     155.7036007    216.700   8.880800E+00   4.319600E-01   3.028400E-01   5.834400E-02   1.637400E+00   7.810000E+05
    13.546     153.2770694    216.700   8.388500E+00   4.438000E-01   3.023500E-01   5.699500E-02   1.635500E+00   7.810000E+05
    13.646     150.8883539    216.700   7.896200E+00   4.556400E-01   3.018600E-01   5.564600E-02   1.633600E+00   7.810000E+05
    13.746     148.5368648    216.700   7.403900E+00   4.674800E-01   3.013700E-01   5.429700E-02   1.631700E+00   7.810000E+05
    13.847     146.2220221    216.700   6.911600E+00   4.793200E-01   3.008800E-01   5.294800E-02   1.629800E+00   7.810000E+05
    13.947     143.9432546    216.700   6.419300E+00   4.911600E-01   3.003900E-01   5.159900E-02   1.627900E+00   7.810000E+05
    14.047     141.7000000    216.700   5.927000E+00   5.030000E-01   2.999000E-01   5.025000E-02   1.626000E+00   7.810000E+05
    14.148     139.4913507    216.700   5.834300E+00   5.177500E-01   2.993500E-01   4.916600E-02   1.623900E+00   7.810000E+05
    14.248     137.3171271    216.700   5.741600E+00   5.325000E-01   2.988000E-01   4.808200E-02   1.621800E+00   7.810000E+05
    14.348     135.1767928    216.700   5.648900E+00   5.472500E-01   2.982500E-01   4.699800E-02   1.619700E+00   7.810000E+05
    14.449     133.0698194    216.700   5.556200E+00   5.620000E-01   2.977000E-01   4.591400E-02   1.617600E+00   7.810000E+05
    14.549     130.9956870    216.700   5.463500E+00   5.767500E-01   2.971500E-01   4.483000E-02   1.615500E+00   7.810000E+05
    14.649     128.9538836    216.700   5.370800E+00   5.915000E-01   2.966000E-01   4.374600E-02   1.613400E+00   7.810000E+05
    14.750     126.9439054    216.700   5.278100E+00   6.062500E-01   2.960500E-01   4.266200E-02   1.611300E+00   7.810000E+05
    14.850     124.9652564    216.700   5.185400E+00   6.210000E-01   2.955000E-01   4.157800E-02   1.609200E+00   7.810000E+05
    14.951     123.0174481    216.700   5.092700E+00   6.357500E-01   2.949500E-01   4.049400E-02   1.607100E+00   7.810000E+05
    15.051     121.1000000    216.700   5.000000E+00   6.505000E-01   2.944000E-01   3.941000E-02   1.605000E+00   7.810000E+05
    15.151     119.2130403    216.700   4.895000E+00   6.724600E-01   2.937300E-01   3.853800E-02   1.602700E+00   7.810000E+05
    15.252     117.3554828    216.700   4.790000E+00   6.944200E-01   2.930600E-01   3.766600E-02   1.600400E+00   7.810000E+05
    15.352     115.5268695    216.700   4.685000E+00   7.163800E-01   2.923900E-01   3.679400E-02   1.598100E+00   7.810000E+05
    15.452     113.7267493    216.700   4.580000E+00   7.383400E-01   2.917200E-01   3.592200E-02   1.595800E+00   7.810000E+05
    15.553     111.9546783    216.700   4.475000E+00   7.603000E-01   2.910500E-01   3.505000E-02   1.593500E+00   7.810000E+05
    15.653     110.2102194    216.700   4.370000E+00   7.822600E-01   2.903800E-01   3.417800E-02   1.591200E+00   7.810000E+05
    15.753     108.4929424    216.700   4.265000E+00   8.042200E-01   2.897100E-01   3.330600E-02   1.588900E+00   7.810000E+05
    15.854     106.8024237    216.700   4.160000E+00   8.261800E-01   2.890400E-01   3.243400E-02   1.586600E+00   7.810000E+05
    15.954     105.1382464    216.700   4.055000E+00   8.481400E-01   2.883700E-01   3.156200E-02   1.584300E+00   7.810000E+05
    16.055     103.5000000    216.700   3.950000E+00   8.701000E-01   2.877000E-01   3.069000E-02   1.582000E+00   7.810000E+05
    16.155     101.8921302    216.700   3.940000E+00   9.017900E-01   2.867600E-01   3.011000E-02   1.579100E+00   7.810000E+05
    16.255     100.3092386    216.700   3.930000E+00   9.334800E-01   2.858200E-01   2.953000E-02   1.576200E+00   7.810000E+05
    16.355      98.7509372    216.700   3.920000E+00   9.651700E-01   2.848800E-01   2.895000E-02   1.573300E+00   7.810000E+05
    16.455      97.2168440    216.700   3.910000E+00   9.968600E-01   2.839400E-01   2.837000E-02   1.570400E+00   7.810000E+05
    16.555      95.7065828    216.700   3.900000E+00   1.028550E+00   2.830000E-01   2.779000E-02   1.567500E+00   7.810000E+05
    16.655      94.2197836    216.700   3.890000E+00   1.060240E+00   2.820600E-01   2.721000E-02   1.564600E+00   7.810000E+05
    16.755      92.7560817    216.700   3.880000E+00   1.091930E+00   2.811200E-01   2.663000E-02   1.561700E+00   7.810000E+05
    16.855      91.3151184    216.700   3.870000E+00   1.123620E+00   2.801800E-01   2.605000E-02   1.558800E+00   7.810000E+05
    16.956      89.8965404    216.700   3.860000E+00   1.155310E+00   2.792400E-01   2.547000E-02   1.555900E+00   7.810000E+05
    17.056      88.5000000    216.700   3.850000E+00   1.187000E+00   2.783000E-01   2.489000E-02   1.553000E+00   7.810000E+05
    17.156      87.1224013    216.700   3.847500E+00   1.227000E+00   2.771800E-01   2.436700E-02   1.549800E+00   7.810000E+05
    17.256      85.7662463    216.700   3.845000E+00   1.267000E+00   2.760600E-01   2.384400E-02   1.546600E+00   7.810000E+05
    17.357      84.4312014    216.700   3.842500E+00   1.307000E+00   2.749400E-01   2.332100E-02   1.543400E+00   7.810000E+05
    17.457      83.1169380    216.700   3.840000E+00   1.347000E+00   2.738200E-01   2.279800E-02   1.540200E+00   7.810000E+05
    17.557      81.8231324    216.700   3.837500E+00   1.387000E+00   2.727000E-01   2.227500E-02   1.537000E+00   7.810000E+05
    17.658      80.5494664    216.700   3.835000E+00   1.427000E+00   2.715800E-01   2.175200E-02   1.533800E+00   7.810000E+05
    17.758      79.2956263    216.700   3.832500E+00   1.467000E+00   2.704600E-01   2.122900E-02   1.530600E+00   7.810000E+05
    17.858      78.0613037    216.700   3.830000E+00   1.507000E+00   2.693400E-01   2.070600E-02   1.527400E+00   7.810000E+05
    17.959      76.8461946    216.700   3.827500E+00   1.547000E+00   2.682200E-01   2.018300E-02   1.524200E+00   7.810000E+05
    18.059      75.6500000    216.700   3.825000E+00   1.587000E+00   2.671000E-01   1.966000E-02   1.521000E+00   7.810000E+05
    18.159      74.4729102    216.700   3.827500E+00   1.631300E+00   2.656600E-01   1.924300E-02   1.516900E+00   7.810000E+05
    18.260      73.3141355    216.700   3.830000E+00   1.675600E+00   2.642200E-01   1.882600E-02   1.512800E+00   7.810000E+05
    18.360      72.1733910    216.700   3.832500E+00   1.719900E+00   2.627800E-01   1.840900E-02   1.508700E+00   7.810000E+05
    18.460      71.0503962    216.700   3.835000E+00   1.764200E+00   2.613400E-01   1.799200E-02   1.504600E+00   7.810000E+05
    18.561      69.9448747    216.700   3.837500E+00   1.808500E+00   2.599000E-01   1.757500E-02   1.500500E+00   7.810000E+05
    18.661      68.8565548    216.700   3.840000E+00   1.852800E+00   2.584600E-01   1.715800E-02   1.496400E+00   7.810000E+05
    18.761      67.7851689    216.700   3.842500E+00   1.897100E+00   2.570200E-01   1.674100E-02   1.492300E+00   7.810000E+05
    18.862      66.7304533    216.700   3.845000E+00   1.941400E+00   2.555800E-01   1.632400E-02   1.488200E+00   7.810000E+05
    18.962      65.6921488    216.700   3.847500E+00   1.985700E+00   2.541400E-01   1.590700E-02   1.484100E+00   7.810000E+05
    19.062      64.6700000    216.700   3.850000E+00   2.030000E+00   2.527000E-01   1.549000E-02   1.480000E+00   7.810000E+05
    19.162      63.6644855    216.700   3.855000E+00   2.084900E+00   2.510800E-01   1.527200E-02   1.474400E+00   7.810000E+05
    19.263      62.6746052    216.700   3.860000E+00   2.139800E+00   2.494600E-01   1.505400E-02   1.468800E+00   7.810000E+05
    19.363      61.7001159    216.700   3.865000E+00   2.194700E+00   2.478400E-01   1.483600E-02   1.463200E+00   7.810000E+05
    19.463      60.7407783    216.700   3.870000E+00   2.249600E+00   2.462200E-01   1.461800E-02   1.457600E+00   7.810000E+05
    19.564      59.7963569    216.700   3.875000E+00   2.304500E+00   2.446000E-01   1.440000E-02   1.452000E+00   7.810000E+05
    19.664      58.8666197    216.700   3.880000E+00   2.359400E+00   2.429800E-01   1.418200E-02   1.446400E+00   7.810000E+05
    19.764      57.9513385    216.700   3.885000E+00   2.414300E+00   2.413600E-01   1.396400E-02   1.440800E+00   7.810000E+05
    19.864      57.0502884    216.700   3.890000E+00   2.469200E+00   2.397400E-01   1.374600E-02   1.435200E+00   7.810000E+05
    19.965      56.1632482    216.700   3.895000E+00   2.524100E+00   2.381200E-01   1.352800E-02   1.429600E+00   7.810000E+05
    20.065      55.2900000    216.700   3.900000E+00   2.579000E+00   2.365000E-01   1.331000E-02   1.424000E+00   7.810000E+05
    20.165      54.4325728    216.790   3.907500E+00   2.623900E+00   2.347900E-01   1.321100E-02   1.417100E+00   7.810000E+05
    20.265      53.5884425    216.880   3.915000E+00   2.668800E+00   2.330800E-01   1.311200E-02   1.410200E+00   7.810000E+05
    20.365      52.7574028    216.970   3.922500E+00   2.713700E+00   2.313700E-01   1.301300E-02   1.403300E+00   7.810000E+05
    20.466      51.9392506    217.060   3.930000E+00   2.758600E+00   2.296600E-01   1.291400E-02   1.396400E+00   7.810000E+05
    20.566      51.1337863    217.150   3.937500E+00   2.803500E+00   2.279500E-01   1.281500E-02   1.389500E+00   7.810000E+05
    20.666      50.3408129    217.240   3.945000E+00   2.848400E+00   2.262400E-01   1.271600E-02   1.382600E+00   7.810000E+05
    20.766      49.5601368    217.330   3.952500E+00   2.893300E+00   2.245300E-01   1.261700E-02   1.375700E+00   7.810000E+05
    20.867      48.7915673    217.420   3.960000E+00   2.938200E+00   2.228200E-01   1.251800E-02   1.368800E+00   7.810000E+05
    20.967      48.0349167    217.510   3.967500E+00   2.983100E+00   2.211100E-01   1.241900E-02   1.361900E+00   7.810000E+05
    21.068      47.2900000    217.600   3.975000E+00   3.028000E+00   2.194000E-01   1.232000E-02   1.355000E+00   7.810000E+05
    21.168      46.5592208    217.700   3.984000E+00   3.089900E+00   2.179700E-01   1.232000E-02   1.346700E+00   7.810000E+05
    21.268      45.8397343    217.800   3.993000E+00   3.151800E+00   2.165400E-01   1.232000E-02   1.338400E+00   7.810000E+05
    21.368      45.1313663    217.900   4.002000E+00   3.213700E+00   2.151100E-01   1.232000E-02   1.330100E+00   7.810000E+05
    21.468      44.4339447    218.000   4.011000E+00   3.275600E+00   2.136800E-01   1.232000E-02   1.321800E+00   7.810000E+05
    21.569      43.7473005    218.100   4.020000E+00   3.337500E+00   2.122500E-01   1.232000E-02   1.313500E+00   7.810000E+05
    21.669      43.0712671    218.200   4.029000E+00   3.399400E+00   2.108200E-01   1.232000E-02   1.305200E+00   7.810000E+05
    21.770      42.4056805    218.300   4.038000E+00   3.461300E+00   2.093900E-01   1.232000E-02   1.296900E+00   7.810000E+05
    21.870      41.7503794    218.400   4.047000E+00   3.523200E+00   2.079600E-01   1.232000E-02   1.288600E+00   7.810000E+05
    21.971      41.1052047    218.500   4.056000E+00   3.585100E+00   2.065300E-01   1.232000E-02   1.280300E+00   7.810000E+05
    22.071      40.4700000    218.600   4.065000E+00   3.647000E+00   2.051000E-01   1.232000E-02   1.272000E+00   7.810000E+05
    22.171      39.8488019    218.700   4.078500E+00   3.699100E+00   2.042600E-01   1.239500E-02   1.263900E+00   7.810000E+05
    22.271      39.2371389    218.800   4.092000E+00   3.751200E+00   2.034200E-01   1.247000E-02   1.255800E+00   7.810000E+05
    22.371      38.6348647    218.900   4.105500E+00   3.803300E+00   2.025800E-01   1.254500E-02   1.247700E+00   7.810000E+05
    22.471      38.0418352    219.000   4.119000E+00   3.855400E+00   2.017400E-01   1.262000E-02   1.239600E+00   7.810000E+05
    22.572      37.4579084    219.100   4.132500E+00   3.907500E+00   2.009000E-01   1.269500E-02   1.231500E+00   7.810000E+05
    22.672      36.8829446    219.200   4.146000E+00   3.959600E+00   2.000600E-01   1.277000E-02   1.223400E+00   7.810000E+05
    22.772      36.3168064    219.300   4.159500E+00   4.011700E+00   1.992200E-01   1.284500E-02   1.215300E+00   7.810000E+05
    22.872      35.7593581    219.400   4.173000E+00   4.063800E+00   1.983800E-01   1.292000E-02   1.207200E+00   7.810000E+05
    22.973      35.2104664    219.500   4.186500E+00   4.115900E+00   1.975400E-01   1.299500E-02   1.199100E+00   7.810000E+05
    23.073      34.6700000    219.600   4.200000E+00   4.168000E+00   1.967000E-01   1.307000E-02   1.191000E+00   7.810000E+05
    23.173      34.1399859    219.700   4.210000E+00   4.213900E+00   1.957800E-01   1.316300E-02   1.183700E+00   7.810000E+05
    23.273      33.6180744    219.800   4.220000E+00   4.259800E+00   1.948600E-01   1.325600E-02   1.176400E+00   7.810000E+05
    23.373      33.1041416    219.900   4.230000E+00   4.305700E+00   1.939400E-01   1.334900E-02   1.169100E+00   7.810000E+05
    23.474      32.5980654    220.000   4.240000E+00   4.351600E+00   1.930200E-01   1.344200E-02   1.161800E+00   7.810000E+05
    23.574      32.0997259    220.100   4.250000E+00   4.397500E+00   1.921000E-01   1.353500E-02   1.154500E+00   7.810000E+05
    23.674      31.6090046    220.200   4.260000E+00   4.443400E+00   1.911800E-01   1.362800E-02   1.147200E+00   7.810000E+05
    23.774      31.1257852    220.300   4.270000E+00   4.489300E+00   1.902600E-01   1.372100E-02   1.139900E+00   7.810000E+05
    23.875      30.6499530    220.400   4.280000E+00   4.535200E+00   1.893400E-01   1.381400E-02   1.132600E+00   7.810000E+05
    23.975      30.1813950    220.500   4.290000E+00   4.581100E+00   1.884200E-01   1.390700E-02   1.125300E+00   7.810000E+05
    24.076      29.7200000    220.600   4.300000E+00   4.627000E+00   1.875000E-01   1.400000E-02   1.118000E+00   7.810000E+05
    24.176      29.2671820    220.700   4.312500E+00   4.676100E+00   1.863100E-01   1.409800E-02   1.111700E+00   7.810000E+05
    24.276      28.8212632    220.800   4.325000E+00   4.725200E+00   1.851200E-01   1.419600E-02   1.105400E+00   7.810000E+05
    24.376      28.3821384    220.900   4.337500E+00   4.774300E+00   1.839300E-01   1.429400E-02   1.099100E+00   7.810000E+05
    24.477      27.9497043    221.000   4.350000E+00   4.823400E+00   1.827400E-01   1.439200E-02   1.092800E+00   7.810000E+05
    24.577      27.5238587    221.100   4.362500E+00   4.872500E+00   1.815500E-01   1.449000E-02   1.086500E+00   7.810000E+05
    24.678      27.1045014    221.200   4.375000E+00   4.921600E+00   1.803600E-01   1.458800E-02   1.080200E+00   7.810000E+05
    24.778      26.6915335    221.300   4.387500E+00   4.970700E+00   1.791700E-01   1.468600E-02   1.073900E+00   7.810000E+05
    24.879      26.2848577    221.400   4.400000E+00   5.019800E+00   1.779800E-01   1.478400E-02   1.067600E+00   7.810000E+05
    24.979      25.8843779    221.500   4.412500E+00   5.068900E+00   1.767900E-01   1.488200E-02   1.061300E+00   7.810000E+05
    25.080      25.4900000    221.600   4.425000E+00   5.118000E+00   1.756000E-01   1.498000E-02   1.055000E+00   7.810000E+05
    25.329      24.5393238    221.840   4.440000E+00   5.186500E+00   1.739200E-01   1.508000E-02   1.048200E+00   7.810000E+05
    25.579      23.6241040    222.080   4.455000E+00   5.255000E+00   1.722400E-01   1.518000E-02   1.041400E+00   7.810000E+05
    25.829      22.7430183    222.320   4.470000E+00   5.323500E+00   1.705600E-01   1.528000E-02   1.034600E+00   7.810000E+05
    26.079      21.8947936    222.560   4.485000E+00   5.392000E+00   1.688800E-01   1.538000E-02   1.027800E+00   7.810000E+05
    26.329      21.0782044    222.800   4.500000E+00   5.460500E+00   1.672000E-01   1.548000E-02   1.021000E+00   7.810000E+05
    26.580      20.2920707    223.040   4.515000E+00   5.529000E+00   1.655200E-01   1.558000E-02   1.014200E+00   7.810000E+05
    26.831      19.5352567    223.280   4.530000E+00   5.597500E+00   1.638400E-01   1.568000E-02   1.007400E+00   7.810000E+05
    27.082      18.8066688    223.520   4.545000E+00   5.666000E+00   1.621600E-01   1.578000E-02   1.000600E+00   7.810000E+05
    27.334      18.1052544    223.760   4.560000E+00   5.734500E+00   1.604800E-01   1.588000E-02   9.938000E-01   7.810000E+05
    27.586      17.4300000    224.000   4.575000E+00   5.803000E+00   1.588000E-01   1.598000E-02   9.870000E-01   7.810000E+05
    27.835      16.7871536    224.250   4.590000E+00   5.878000E+00   1.570800E-01   1.609200E-02   9.796600E-01   7.810000E+05
    28.085      16.1680164    224.500   4.605000E+00   5.953000E+00   1.553600E-01   1.620400E-02   9.723200E-01   7.810000E+05
    28.335      15.5717139    224.750   4.620000E+00   6.028000E+00   1.536400E-01   1.631600E-02   9.649800E-01   7.810000E+05
    28.585      14.9974041    225.000   4.635000E+00   6.103000E+00   1.519200E-01   1.642800E-02   9.576400E-01   7.810000E+05
    28.836      14.4442757    225.250   4.650000E+00   6.178000E+00   1.502000E-01   1.654000E-02   9.503000E-01   7.810000E+05
    29.086      13.9115476    225.500   4.665000E+00   6.253000E+00   1.484800E-01   1.665200E-02   9.429600E-01   7.810000E+05
    29.337      13.3984673    225.750   4.680000E+00   6.328000E+00   1.467600E-01   1.676400E-02   9.356200E-01   7.810000E+05
    29.589      12.9043103    226.000   4.695000E+00   6.403000E+00   1.450400E-01   1.687600E-02   9.282800E-01   7.810000E+05
    29.841      12.4283786    226.250   4.710000E+00   6.478000E+00   1.433200E-01   1.698800E-02   9.209400E-01   7.810000E+05
    30.093      11.9700000    226.500   4.725000E+00   6.553000E+00   1.416000E-01   1.710000E-02   9.136000E-01   7.810000E+05
    30.362      11.4986800    226.850   4.735000E+00   6.635000E+00   1.390900E-01   1.724000E-02   9.052400E-01   7.810000E+05
    30.633      11.0459182    227.200   4.745000E+00   6.717000E+00   1.365800E-01   1.738000E-02   8.968800E-01   7.810000E+05
    30.903      10.6109840    227.550   4.755000E+00   6.799000E+00   1.340700E-01   1.752000E-02   8.885200E-01   7.810000E+05
    31.175      10.1931754    227.900   4.765000E+00   6.881000E+00   1.315600E-01   1.766000E-02   8.801600E-01   7.810000E+05
    31.446       9.7918180    228.250   4.775000E+00   6.963000E+00   1.290500E-01   1.780000E-02   8.718000E-01   7.810000E+05
    31.718       9.4062641    228.600   4.785000E+00   7.045000E+00   1.265400E-01   1.794000E-02   8.634400E-01   7.810000E+05
    31.990       9.0358915    228.950   4.795000E+00   7.127000E+00   1.240300E-01   1.808000E-02   8.550800E-01   7.810000E+05
    32.263       8.6801023    229.300   4.805000E+00   7.209000E+00   1.215200E-01   1.822000E-02   8.467200E-01   7.810000E+05
    32.537       8.3383223    229.650   4.815000E+00   7.291000E+00   1.190100E-01   1.836000E-02   8.383600E-01   7.810000E+05
    32.810       8.0100000    230.000   4.825000E+00   7.373000E+00   1.165000E-01   1.850000E-02   8.300000E-01   7.810000E+05
    33.037       7.7482893    230.650   4.832500E+00   7.419400E+00   1.141250E-01   1.865900E-02   8.216000E-01   7.810000E+05
    33.265       7.4951294    231.300   4.840000E+00   7.465800E+00   1.117500E-01   1.881800E-02   8.132000E-01   7.810000E+05
    33.493       7.2502411    231.950   4.847500E+00   7.512200E+00   1.093750E-01   1.897700E-02   8.048000E-01   7.810000E+05
    33.722       7.0133540    232.600   4.855000E+00   7.558600E+00   1.070000E-01   1.913600E-02   7.964000E-01   7.810000E+05
    33.951       6.7842067    233.250   4.862500E+00   7.605000E+00   1.046250E-01   1.929500E-02   7.880000E-01   7.810000E+05
    34.182       6.5625463    233.900   4.870000E+00   7.651400E+00   1.022500E-01   1.945400E-02   7.796000E-01   7.810000E+05
    34.412       6.3481282    234.550   4.877500E+00   7.697800E+00   9.987500E-02   1.961300E-02   7.712000E-01   7.810000E+05
    34.644       6.1407158    235.200   4.885000E+00   7.744200E+00   9.750000E-02   1.977200E-02   7.628000E-01   7.810000E+05
    34.876       5.9400802    235.850   4.892500E+00   7.790600E+00   9.512500E-02   1.993100E-02   7.544000E-01   7.810000E+05
    35.109       5.7460000    236.500   4.900000E+00   7.837000E+00   9.275000E-02   2.009000E-02   7.460000E-01   7.810000E+05
    35.338       5.5620369    237.140   4.905000E+00   7.833300E+00   9.016800E-02   2.030100E-02   7.375800E-01   7.810000E+05
    35.567       5.3839636    237.780   4.910000E+00   7.829600E+00   8.758600E-02   2.051200E-02   7.291600E-01   7.810000E+05
    35.797       5.2115915    238.420   4.915000E+00   7.825900E+00   8.500400E-02   2.072300E-02   7.207400E-01   7.810000E+05
    36.027       5.0447380    239.060   4.920000E+00   7.822200E+00   8.242200E-02   2.093400E-02   7.123200E-01   7.810000E+05
    36.259       4.8832264    239.700   4.925000E+00   7.818500E+00   7.984000E-02   2.114500E-02   7.039000E-01   7.810000E+05
    36.490       4.7268858    240.340   4.930000E+00   7.814800E+00   7.725800E-02   2.135600E-02   6.954800E-01   7.810000E+05
    36.723       4.5755505    240.980   4.935000E+00   7.811100E+00   7.467600E-02   2.156700E-02   6.870600E-01   7.810000E+05
    36.956       4.4290604    241.620   4.940000E+00   7.807400E+00   7.209400E-02   2.177800E-02   6.786400E-01   7.810000E+05
    37.190       4.2872603    242.260   4.945000E+00   7.803700E+00   6.951200E-02   2.198900E-02   6.702200E-01   7.810000E+05
    37.424       4.1500000    242.900   4.950000E+00   7.800000E+00   6.693000E-02   2.220000E-02   6.618000E-01   7.810000E+05
    37.690       3.9998767    243.650   4.957500E+00   7.750000E+00   6.475000E-02   2.247700E-02   6.520000E-01   7.810000E+05
    37.957       3.8551840    244.400   4.965000E+00   7.700000E+00   6.257000E-02   2.275400E-02   6.422000E-01   7.810000E+05
    38.225       3.7157255    245.150   4.972500E+00   7.650000E+00   6.039000E-02   2.303100E-02   6.324000E-01   7.810000E+05
    38.494       3.5813118    245.900   4.980000E+00   7.600000E+00   5.821000E-02   2.330800E-02   6.226000E-01   7.810000E+05
    38.764       3.4517604    246.650   4.987500E+00   7.550000E+00   5.603000E-02   2.358500E-02   6.128000E-01   7.810000E+05
    39.034       3.3268955    247.400   4.995000E+00   7.500000E+00   5.385000E-02   2.386200E-02   6.030000E-01   7.810000E+05
    39.305       3.2065474    248.150   5.002500E+00   7.450000E+00   5.167000E-02   2.413900E-02   5.932000E-01   7.810000E+05
    39.577       3.0905528    248.900   5.010000E+00   7.400000E+00   4.949000E-02   2.441600E-02   5.834000E-01   7.810000E+05
    39.850       2.9787543    249.650   5.017500E+00   7.350000E+00   4.731000E-02   2.469300E-02   5.736000E-01   7.810000E+05
    40.124       2.8710000    250.400   5.025000E+00   7.300000E+00   4.513000E-02   2.497000E-02   5.638000E-01   7.810000E+05
    40.371       2.7772604    251.090   5.037500E+00   7.190000E+00   4.336800E-02   2.529700E-02   5.535600E-01   7.810000E+05
    40.619       2.6865814    251.780   5.050000E+00   7.080000E+00   4.160600E-02   2.562400E-02   5.433200E-01   7.810000E+05
    40.868       2.5988631    252.470   5.062500E+00   6.970000E+00   3.984400E-02   2.595100E-02   5.330800E-01   7.810000E+05
    41.118       2.5140089    253.160   5.075000E+00   6.860000E+00   3.808200E-02   2.627800E-02   5.228400E-01   7.810000E+05
    41.368       2.4319252    253.850   5.087500E+00   6.750000E+00   3.632000E-02   2.660500E-02   5.126000E-01   7.810000E+05
    41.619       2.3525215    254.540   5.100000E+00   6.640000E+00   3.455800E-02   2.693200E-02   5.023600E-01   7.810000E+05
    41.870       2.2757105    255.230   5.112500E+00   6.530000E+00   3.279600E-02   2.725900E-02   4.921200E-01   7.810000E+05
    42.123       2.2014074    255.920   5.125000E+00   6.420000E+00   3.103400E-02   2.758600E-02   4.818800E-01   7.810000E+05
    42.376       2.1295303    256.610   5.137500E+00   6.310000E+00   2.927200E-02   2.791300E-02   4.716400E-01   7.810000E+05
    42.629       2.0600000    257.300   5.150000E+00   6.200000E+00   2.751000E-02   2.824000E-02   4.614000E-01   7.810000E+05
    42.877       1.9944735    257.990   5.157500E+00   6.105000E+00   2.635000E-02   2.865700E-02   4.515700E-01   7.810000E+05
    43.126       1.9310313    258.680   5.165000E+00   6.010000E+00   2.519000E-02   2.907400E-02   4.417400E-01   7.810000E+05
    43.375       1.8696071    259.370   5.172500E+00   5.915000E+00   2.403000E-02   2.949100E-02   4.319100E-01   7.810000E+05
    43.624       1.8101368    260.060   5.180000E+00   5.820000E+00   2.287000E-02   2.990800E-02   4.220800E-01   7.810000E+05
    43.875       1.7525581    260.750   5.187500E+00   5.725000E+00   2.171000E-02   3.032500E-02   4.122500E-01   7.810000E+05
    44.126       1.6968110    261.440   5.195000E+00   5.630000E+00   2.055000E-02   3.074200E-02   4.024200E-01   7.810000E+05
    44.378       1.6428372    262.130   5.202500E+00   5.535000E+00   1.939000E-02   3.115900E-02   3.925900E-01   7.810000E+05
    44.630       1.5905802    262.820   5.210000E+00   5.440000E+00   1.823000E-02   3.157600E-02   3.827600E-01   7.810000E+05
    44.884       1.5399854    263.510   5.217500E+00   5.345000E+00   1.707000E-02   3.199300E-02   3.729300E-01   7.810000E+05
    45.138       1.4910000    264.200   5.225000E+00   5.250000E+00   1.591000E-02   3.241000E-02   3.631000E-01   7.810000E+05
    45.384       1.4450156    264.840   5.227500E+00   5.135000E+00   1.525680E-02   3.288600E-02   3.545200E-01   7.810000E+05
    45.631       1.4004494    265.480   5.230000E+00   5.020000E+00   1.460360E-02   3.336200E-02   3.459400E-01   7.810000E+05
    45.879       1.3572577    266.120   5.232500E+00   4.905000E+00   1.395040E-02   3.383800E-02   3.373600E-01   7.810000E+05
    46.128       1.3153980    266.760   5.235000E+00   4.790000E+00   1.329720E-02   3.431400E-02   3.287800E-01   7.810000E+05
    46.377       1.2748294    267.400   5.237500E+00   4.675000E+00   1.264400E-02   3.479000E-02   3.202000E-01   7.810000E+05
    46.627       1.2355120    268.040   5.240000E+00   4.560000E+00   1.199080E-02   3.526600E-02   3.116200E-01   7.810000E+05
    46.877       1.1974071    268.680   5.242500E+00   4.445000E+00   1.133760E-02   3.574200E-02   3.030400E-01   7.810000E+05
    47.128       1.1604775    269.320   5.245000E+00   4.330000E+00   1.068440E-02   3.621800E-02   2.944600E-01   7.810000E+05
    47.380       1.1246868    269.960   5.247500E+00   4.215000E+00   1.003120E-02   3.669400E-02   2.858800E-01   7.810000E+05
    47.632       1.0900000    270.600   5.250000E+00   4.100000E+00   9.378000E-03   3.717000E-02   2.773000E-01   7.810000E+05
    47.884       1.0565091    270.610   5.247500E+00   4.000000E+00   8.915400E-03   3.805000E-02   2.705700E-01   7.810000E+05
    48.135       1.0240473    270.620   5.245000E+00   3.900000E+00   8.452800E-03   3.893000E-02   2.638400E-01   7.810000E+05
    48.387       0.9925828    270.630   5.242500E+00   3.800000E+00   7.990200E-03   3.981000E-02   2.571100E-01   7.810000E+05
    48.639       0.9620852    270.640   5.240000E+00   3.700000E+00   7.527600E-03   4.069000E-02   2.503800E-01   7.810000E+05
    48.890       0.9325245    270.650   5.237500E+00   3.600000E+00   7.065000E-03   4.157000E-02   2.436500E-01   7.810000E+05
    49.142       0.9038722    270.660   5.235000E+00   3.500000E+00   6.602400E-03   4.245000E-02   2.369200E-01   7.810000E+05
    49.394       0.8761002    270.670   5.232500E+00   3.400000E+00   6.139800E-03   4.333000E-02   2.301900E-01   7.810000E+05
    49.646       0.8491815    270.680   5.230000E+00   3.300000E+00   5.677200E-03   4.421000E-02   2.234600E-01   7.810000E+05
    49.897       0.8230899    270.690   5.227500E+00   3.200000E+00   5.214600E-03   4.509000E-02   2.167300E-01   7.810000E+05
    50.149       0.7978000    270.700   5.225000E+00   3.100000E+00   4.752000E-03   4.597000E-02   2.100000E-01   7.810000E+05
    50.657       0.7491064    269.710   5.212500E+00   2.970000E+00   4.576800E-03   4.801200E-02   2.055000E-01   7.810000E+05
    51.162       0.7033849    268.720   5.200000E+00   2.840000E+00   4.401600E-03   5.005400E-02   2.010000E-01   7.810000E+05
    51.666       0.6604539    267.730   5.187500E+00   2.710000E+00   4.226400E-03   5.209600E-02   1.965000E-01   7.810000E+05
    52.168       0.6201432    266.740   5.175000E+00   2.580000E+00   4.051200E-03   5.413800E-02   1.920000E-01   7.810000E+05
    52.669       0.5822929    265.750   5.162500E+00   2.450000E+00   3.876000E-03   5.618000E-02   1.875000E-01   7.810000E+05
    53.167       0.5467527    264.760   5.150000E+00   2.320000E+00   3.700800E-03   5.822200E-02   1.830000E-01   7.810000E+05
    53.664       0.5133818    263.770   5.137500E+00   2.190000E+00   3.525600E-03   6.026400E-02   1.785000E-01   7.810000E+05
    54.159       0.4820476    262.780   5.125000E+00   2.060000E+00   3.350400E-03   6.230600E-02   1.740000E-01   7.810000E+05
    54.652       0.4526259    261.790   5.112500E+00   1.930000E+00   3.175200E-03   6.434800E-02   1.695000E-01   7.810000E+05
    55.143       0.4250000    260.800   5.100000E+00   1.800000E+00   3.000000E-03   6.639000E-02   1.650000E-01   7.810000E+05
    55.658       0.3977356    259.420   5.065000E+00   1.730000E+00   2.906500E-03   7.048100E-02   1.635000E-01   7.810000E+05
    56.171       0.3722202    258.040   5.030000E+00   1.660000E+00   2.813000E-03   7.457200E-02   1.620000E-01   7.810000E+05
    56.680       0.3483417    256.660   4.995000E+00   1.590000E+00   2.719500E-03   7.866300E-02   1.605000E-01   7.810000E+05
    57.187       0.3259950    255.280   4.960000E+00   1.520000E+00   2.626000E-03   8.275400E-02   1.590000E-01   7.810000E+05
    57.692       0.3050820    253.900   4.925000E+00   1.450000E+00   2.532500E-03   8.684500E-02   1.575000E-01   7.810000E+05
    58.194       0.2855105    252.520   4.890000E+00   1.380000E+00   2.439000E-03   9.093600E-02   1.560000E-01   7.810000E+05
    58.693       0.2671945    251.140   4.855000E+00   1.310000E+00   2.345500E-03   9.502700E-02   1.545000E-01   7.810000E+05
    59.189       0.2500536    249.760   4.820000E+00   1.240000E+00   2.252000E-03   9.911800E-02   1.530000E-01   7.810000E+05
    59.683       0.2340123    248.380   4.785000E+00   1.170000E+00   2.158500E-03   1.032090E-01   1.515000E-01   7.810000E+05
    60.174       0.2190000    247.000   4.750000E+00   1.100000E+00   2.065000E-03   1.073000E-01   1.500000E-01   7.810000E+05
    60.688       0.2042407    245.630   4.695000E+00   1.060000E+00   2.009200E-03   1.151900E-01   1.500000E-01   7.810000E+05
    61.200       0.1904761    244.260   4.640000E+00   1.020000E+00   1.953400E-03   1.230800E-01   1.500000E-01   7.810000E+05
    61.708       0.1776392    242.890   4.585000E+00   9.800000E-01   1.897600E-03   1.309700E-01   1.500000E-01   7.810000E+05
    62.214       0.1656674    241.520   4.530000E+00   9.400000E-01   1.841800E-03   1.388600E-01   1.500000E-01   7.810000E+05
    62.717       0.1545024    240.150   4.475000E+00   9.000000E-01   1.786000E-03   1.467500E-01   1.500000E-01   7.810000E+05
    63.217       0.1440899    238.780   4.420000E+00   8.600000E-01   1.730200E-03   1.546400E-01   1.500000E-01   7.810000E+05
    63.714       0.1343791    237.410   4.365000E+00   8.200000E-01   1.674400E-03   1.625300E-01   1.500000E-01   7.810000E+05
    64.209       0.1253228    236.040   4.310000E+00   7.800000E-01   1.618600E-03   1.704200E-01   1.500000E-01   7.810000E+05
    64.701       0.1168768    234.670   4.255000E+00   7.400000E-01   1.562800E-03   1.783100E-01   1.500000E-01   7.810000E+05
    65.190       0.1090000    233.300   4.200000E+00   7.000000E-01   1.507000E-03   1.862000E-01   1.500000E-01   7.810000E+05
    65.703       0.1012630    231.930   4.130000E+00   6.600000E-01   1.471200E-03   1.981700E-01   1.500000E-01   7.810000E+05
    66.213       0.0940752    230.560   4.060000E+00   6.200000E-01   1.435400E-03   2.101400E-01   1.500000E-01   7.810000E+05
    66.720       0.0873976    229.190   3.990000E+00   5.800000E-01   1.399600E-03   2.221100E-01   1.500000E-01   7.810000E+05
    67.225       0.0811940    227.820   3.920000E+00   5.400000E-01   1.363800E-03   2.340800E-01   1.500000E-01   7.810000E+05
    67.726       0.0754308    226.450   3.850000E+00   5.000000E-01   1.328000E-03   2.460500E-01   1.500000E-01   7.810000E+05
    68.224       0.0700766    225.080   3.780000E+00   4.600000E-01   1.292200E-03   2.580200E-01   1.500000E-01   7.810000E+05
    68.720       0.0651024    223.710   3.710000E+00   4.200000E-01   1.256400E-03   2.699900E-01   1.500000E-01   7.810000E+05
    69.212       0.0604814    222.340   3.640000E+00   3.800000E-01   1.220600E-03   2.819600E-01   1.500000E-01   7.810000E+05
    69.702       0.0561883    220.970   3.570000E+00   3.400000E-01   1.184800E-03   2.939300E-01   1.500000E-01   7.810000E+05
    70.188       0.0522000    219.600   3.500000E+00   3.000000E-01   1.149000E-03   3.059000E-01   1.500000E-01   7.810000E+05
    70.699       0.0482975    218.480   3.432500E+00   2.950000E-01   1.123000E-03   3.390600E-01   1.500000E-01   7.810000E+05
    71.207       0.0446867    217.360   3.365000E+00   2.900000E-01   1.097000E-03   3.722200E-01   1.500000E-01   7.810000E+05
    71.713       0.0413459    216.240   3.297500E+00   2.850000E-01   1.071000E-03   4.053800E-01   1.500000E-01   7.810000E+05
    72.216       0.0382549    215.120   3.230000E+00   2.800000E-01   1.045000E-03   4.385400E-01   1.500000E-01   7.810000E+05
    72.717       0.0353949    214.000   3.162500E+00   2.750000E-01   1.019000E-03   4.717000E-01   1.500000E-01   7.810000E+05
    73.215       0.0327488    212.880   3.095000E+00   2.700000E-01   9.930000E-04   5.048600E-01   1.500000E-01   7.810000E+05
    73.710       0.0303004    211.760   3.027500E+00   2.650000E-01   9.670000E-04   5.380200E-01   1.500000E-01   7.810000E+05
    74.203       0.0280352    210.640   2.960000E+00   2.600000E-01   9.410000E-04   5.711800E-01   1.500000E-01   7.810000E+05
    74.694       0.0259392    209.520   2.892500E+00   2.550000E-01   9.150000E-04   6.043400E-01   1.500000E-01   7.810000E+05
    75.181       0.0240000    208.400   2.825000E+00   2.500000E-01   8.890000E-04   6.375000E-01   1.500000E-01   7.810000E+05
    75.698       0.0220958    207.420   2.747500E+00   2.550000E-01   8.706600E-04   7.234500E-01   1.500000E-01   7.810000E+05
    76.212       0.0203426    206.440   2.670000E+00   2.600000E-01   8.523200E-04   8.094000E-01   1.500000E-01   7.810000E+05
    76.724       0.0187286    205.460   2.592500E+00   2.650000E-01   8.339800E-04   8.953500E-01   1.500000E-01   7.810000E+05
    77.233       0.0172426    204.480   2.515000E+00   2.700000E-01   8.156400E-04   9.813000E-01   1.500000E-01   7.810000E+05
    77.741       0.0158745    203.500   2.437500E+00   2.750000E-01   7.973000E-04   1.067250E+00   1.500000E-01   7.810000E+05
    78.245       0.0146150    202.520   2.360000E+00   2.800000E-01   7.789600E-04   1.153200E+00   1.500000E-01   7.810000E+05
    78.748       0.0134554    201.540   2.282500E+00   2.850000E-01   7.606200E-04   1.239150E+00   1.500000E-01   7.810000E+05
    79.248       0.0123878    200.560   2.205000E+00   2.900000E-01   7.422800E-04   1.325100E+00   1.500000E-01   7.810000E+05
    79.745       0.0114049    199.580   2.127500E+00   2.950000E-01   7.239400E-04   1.411050E+00   1.500000E-01   7.810000E+05
    80.241       0.0105000    198.600   2.050000E+00   3.000000E-01   7.056000E-04   1.497000E+00   1.500000E-01   7.810000E+05
    80.751       0.0096384    197.630   1.978000E+00   3.200000E-01   6.922000E-04   1.671200E+00   1.500000E-01   7.810000E+05
    81.259       0.0088475    196.660   1.906000E+00   3.400000E-01   6.788000E-04   1.845400E+00   1.500000E-01   7.810000E+05
    81.765       0.0081214    195.690   1.834000E+00   3.600000E-01   6.654000E-04   2.019600E+00   1.500000E-01   7.810000E+05
    82.269       0.0074550    194.720   1.762000E+00   3.800000E-01   6.520000E-04   2.193800E+00   1.500000E-01   7.810000E+05
    82.769       0.0068432    193.750   1.690000E+00   4.000000E-01   6.386000E-04   2.368000E+00   1.500000E-01   7.810000E+05
    83.268       0.0062817    192.780   1.618000E+00   4.200000E-01   6.252000E-04   2.542200E+00   1.500000E-01   7.810000E+05
    83.764       0.0057662    191.810   1.546000E+00   4.400000E-01   6.118000E-04   2.716400E+00   1.500000E-01   7.810000E+05
    84.258       0.0052930    190.840   1.474000E+00   4.600000E-01   5.984000E-04   2.890600E+00   1.500000E-01   7.810000E+05
    84.749       0.0048587    189.870   1.402000E+00   4.800000E-01   5.850000E-04   3.064800E+00   1.500000E-01   7.810000E+05
    85.238       0.0044600    188.900   1.330000E+00   5.000000E-01   5.716000E-04   3.239000E+00   1.500000E-01   7.810000E+05
    85.742       0.0040821    188.700   1.282000E+00   5.200000E-01   5.615200E-04   3.499400E+00   1.490000E-01   7.809000E+05
    86.245       0.0037362    188.500   1.234000E+00   5.400000E-01   5.514400E-04   3.759800E+00   1.480000E-01   7.808000E+05
    86.748       0.0034196    188.300   1.186000E+00   5.600000E-01   5.413600E-04   4.020200E+00   1.470000E-01   7.807000E+05
    87.251       0.0031299    188.100   1.138000E+00   5.800000E-01   5.312800E-04   4.280600E+00   1.460000E-01   7.806000E+05
    87.753       0.0028647    187.900   1.090000E+00   6.000000E-01   5.212000E-04   4.541000E+00   1.450000E-01   7.805000E+05
    88.254       0.0026220    187.700   1.042000E+00   6.200000E-01   5.111200E-04   4.801400E+00   1.440000E-01   7.804000E+05
    88.755       0.0023998    187.500   9.940000E-01   6.400000E-01   5.010400E-04   5.061800E+00   1.430000E-01   7.803000E+05
    89.256       0.0021964    187.300   9.460000E-01   6.600000E-01   4.909600E-04   5.322200E+00   1.420000E-01   7.802000E+05
    89.756       0.0020103    187.100   8.980000E-01   6.800000E-01   4.808800E-04   5.582600E+00   1.410000E-01   7.801000E+05
    90.256       0.0018400    186.900   8.500000E-01   7.000000E-01   4.708000E-04   5.843000E+00   1.400000E-01   7.800000E+05
    90.755       0.0016843    187.050   8.190000E-01   7.000000E-01   4.630400E-04   6.271700E+00   1.390000E-01   7.799000E+05
    91.255       0.0015418    187.200   7.880000E-01   7.000000E-01   4.552800E-04   6.700400E+00   1.380000E-01   7.798000E+05
    91.755       0.0014113    187.350   7.570000E-01   7.000000E-01   4.475200E-04   7.129100E+00   1.370000E-01   7.797000E+05
    92.256       0.0012919    187.500   7.260000E-01   7.000000E-01   4.397600E-04   7.557800E+00   1.360000E-01   7.796000E+05
    92.757       0.0011825    187.650   6.950000E-01   7.000000E-01   4.320000E-04   7.986500E+00   1.350000E-01   7.795000E+05
    93.258       0.0010825    187.800   6.640000E-01   7.000000E-01   4.242400E-04   8.415200E+00   1.340000E-01   7.794000E+05
    93.760       0.0009909    187.950   6.330000E-01   7.000000E-01   4.164800E-04   8.843900E+00   1.330000E-01   7.793000E+05
    94.263       0.0009070    188.100   6.020000E-01   7.000000E-01   4.087200E-04   9.272600E+00   1.320000E-01   7.792000E+05
    94.766       0.0008303    188.250   5.710000E-01   7.000000E-01   4.009600E-04   9.701300E+00   1.310000E-01   7.791000E+05
    95.269       0.0007600    188.400   5.400000E-01   7.000000E-01   3.932000E-04   1.013000E+01   1.300000E-01   7.790000E+05
    95.763       0.0006970    189.070   5.260000E-01   6.700000E-01   3.871100E-04   1.080900E+01   1.290000E-01   7.788000E+05
    96.258       0.0006393    189.740   5.120000E-01   6.400000E-01   3.810200E-04   1.148800E+01   1.280000E-01   7.786000E+05
    96.755       0.0005863    190.410   4.980000E-01   6.100000E-01   3.749300E-04   1.216700E+01   1.270000E-01   7.784000E+05
    97.254       0.0005377    191.080   4.840000E-01   5.800000E-01   3.688400E-04   1.284600E+01   1.260000E-01   7.782000E+05
    97.755       0.0004932    191.750   4.700000E-01   5.500000E-01   3.627500E-04   1.352500E+01   1.250000E-01   7.780000E+05
    98.258       0.0004523    192.420   4.560000E-01   5.200000E-01   3.566600E-04   1.420400E+01   1.240000E-01   7.778000E+05
    98.763       0.0004148    193.090   4.420000E-01   4.900000E-01   3.505700E-04   1.488300E+01   1.230000E-01   7.776000E+05
    99.269       0.0003804    193.760   4.280000E-01   4.600000E-01   3.444800E-04   1.556200E+01   1.220000E-01   7.774000E+05
    99.777       0.0003489    194.430   4.140000E-01   4.300000E-01   3.383900E-04   1.624100E+01   1.210000E-01   7.772000E+05
   100.288       0.0003200    195.100   4.000000E-01   4.000000E-01   3.323000E-04   1.692000E+01   1.200000E-01   7.770000E+05
   100.757       0.0002956    196.470   3.940000E-01   3.800000E-01   3.274400E-04   1.769500E+01   1.190000E-01   7.767000E+05
   101.229       0.0002731    197.840   3.880000E-01   3.600000E-01   3.225800E-04   1.847000E+01   1.180000E-01   7.764000E+05
   101.705       0.0002524    199.210   3.820000E-01   3.400000E-01   3.177200E-04   1.924500E+01   1.170000E-01   7.761000E+05
   102.185       0.0002332    200.580   3.760000E-01   3.200000E-01   3.128600E-04   2.002000E+01   1.160000E-01   7.758000E+05
   102.668       0.0002154    201.950   3.700000E-01   3.000000E-01   3.080000E-04   2.079500E+01   1.150000E-01   7.755000E+05
   103.154       0.0001990    203.320   3.640000E-01   2.800000E-01   3.031400E-04   2.157000E+01   1.140000E-01   7.752000E+05
   103.643       0.0001839    204.690   3.580000E-01   2.600000E-01   2.982800E-04   2.234500E+01   1.130000E-01   7.749000E+05
   104.136       0.0001699    206.060   3.520000E-01   2.400000E-01   2.934200E-04   2.312000E+01   1.120000E-01   7.746000E+05
   104.632       0.0001569    207.430   3.460000E-01   2.200000E-01   2.885600E-04   2.389500E+01   1.110000E-01   7.743000E+05
   105.132       0.0001450    208.800   3.400000E-01   2.000000E-01   2.837000E-04   2.467000E+01   1.100000E-01   7.740000E+05
   105.587       0.0001350    211.920   3.340000E-01   1.850000E-01   2.797600E-04   2.555900E+01   1.085000E-01   7.736000E+05
   106.049       0.0001257    215.040   3.280000E-01   1.700000E-01   2.758200E-04   2.644800E+01   1.070000E-01   7.732000E+05
   106.518       0.0001170    218.160   3.220000E-01   1.550000E-01   2.718800E-04   2.733700E+01   1.055000E-01   7.728000E+05
   106.994       0.0001090    221.280   3.160000E-01   1.400000E-01   2.679400E-04   2.822600E+01   1.040000E-01   7.724000E+05
   107.477       0.0001015    224.400   3.100000E-01   1.250000E-01   2.640000E-04   2.911500E+01   1.025000E-01   7.720000E+05
   107.967       0.0000945    227.520   3.040000E-01   1.100000E-01   2.600600E-04   3.000400E+01   1.010000E-01   7.716000E+05
   108.463       0.0000880    230.640   2.980000E-01   9.500000E-02   2.561200E-04   3.089300E+01   9.950000E-02   7.712000E+05
   108.966       0.0000819    233.760   2.920000E-01   8.000000E-02   2.521800E-04   3.178200E+01   9.800000E-02   7.708000E+05
   109.476       0.0000763    236.880   2.860000E-01   6.500000E-02   2.482400E-04   3.267100E+01   9.650000E-02   7.704000E+05
   109.993       0.0000710    240.000   2.800000E-01   5.000000E-02   2.443000E-04   3.356000E+01   9.500000E-02   7.700000E+05
   110.415       0.0000671    246.000   2.760000E-01   4.550000E-02   2.410700E-04   3.435200E+01   9.150000E-02   7.695000E+05
   110.847       0.0000633    252.000   2.720000E-01   4.100000E-02   2.378400E-04   3.514400E+01   8.800000E-02   7.690000E+05
   111.289       0.0000598    258.000   2.680000E-01   3.650000E-02   2.346100E-04   3.593600E+01   8.450000E-02   7.685000E+05
   111.742       0.0000565    264.000   2.640000E-01   3.200000E-02   2.313800E-04   3.672800E+01   8.100000E-02   7.680000E+05
   112.206       0.0000534    270.000   2.600000E-01   2.750000E-02   2.281500E-04   3.752000E+01   7.750000E-02   7.675000E+05
   112.680       0.0000504    276.000   2.560000E-01   2.300000E-02   2.249200E-04   3.831200E+01   7.400000E-02   7.670000E+05
   113.164       0.0000476    282.000   2.520000E-01   1.850000E-02   2.216900E-04   3.910400E+01   7.050000E-02   7.665000E+05
   113.659       0.0000450    288.000   2.480000E-01   1.400000E-02   2.184600E-04   3.989600E+01   6.700000E-02   7.660000E+05
   114.164       0.0000425    294.000   2.440000E-01   9.500000E-03   2.152300E-04   4.068800E+01   6.350000E-02   7.655000E+05
   114.680       0.0000401    300.000   2.400000E-01   5.000000E-03   2.120000E-04   4.148000E+01   6.000000E-02   7.650000E+05
   115.101       0.0000383    306.000   2.360000E-01   4.550000E-03   2.093100E-04   4.233200E+01   5.700000E-02   7.645000E+05
   115.530       0.0000366    312.000   2.320000E-01   4.100000E-03   2.066200E-04   4.318400E+01   5.400000E-02   7.640000E+05
   115.968       0.0000350    318.000   2.280000E-01   3.650000E-03   2.039300E-04   4.403600E+01   5.100000E-02   7.635000E+05
   116.413       0.0000334    324.000   2.240000E-01   3.200000E-03   2.012400E-04   4.488800E+01   4.800000E-02   7.630000E+05
   116.868       0.0000319    330.000   2.200000E-01   2.750000E-03   1.985500E-04   4.574000E+01   4.500000E-02   7.625000E+05
   117.331       0.0000305    336.000   2.160000E-01   2.300000E-03   1.958600E-04   4.659200E+01   4.200000E-02   7.620000E+05
   117.802       0.0000291    342.000   2.120000E-01   1.850000E-03   1.931700E-04   4.744400E+01   3.900000E-02   7.615000E+05
   118.281       0.0000278    348.000   2.080000E-01   1.400000E-03   1.904800E-04   4.829600E+01   3.600000E-02   7.610000E+05
   118.769       0.0000266    354.000   2.040000E-01   9.500000E-04   1.877900E-04   4.914800E+01   3.300000E-02   7.605000E+05
   119.266       0.0000254    360.000   2.000000E-01   5.000000E-04   1.851000E-04   5.000000E+01   3.000000E-02   7.600000E+05


     PL(mb)       TL(K)       H2OL(kmol/cm2)   O3L(kmol/cm2)  N2OL(kmol/cm2)   COL(kmol/cm2)  CH4L(kmol/cm2)   N2L(kmol/cm2)
----------------------------------------------------------------------------------------------------------------------------
   954.76197     285.016       2.779804E-05    1.121206E-10    1.284655E-09    5.923415E-10    6.824730E-09    3.135361E-03
   845.83875     278.518       1.960331E-05    1.125659E-10    1.169162E-09    5.206465E-10    6.211173E-09    2.853486E-03
   747.11888     272.019       1.296263E-05    1.083152E-10    1.057807E-09    4.543656E-10    5.619602E-09    2.581711E-03
   657.99381     265.521       8.001231E-06    1.000393E-10    9.550935E-10    3.972262E-10    5.073934E-09    2.331025E-03
   577.71488     259.022       4.798459E-06    9.602156E-11    8.598820E-10    3.513685E-10    4.568123E-09    2.098650E-03
   505.58134     252.524       2.815064E-06    9.499587E-11    7.722879E-10    3.126961E-10    4.102779E-09    1.884865E-03
   440.94469     246.026       1.626050E-06    9.829638E-11    6.912713E-10    2.739091E-10    3.671323E-09    1.687134E-03
   383.15183     239.528       9.111287E-07    1.057668E-10    6.180349E-10    2.349935E-10    3.279493E-09    1.508391E-03
   331.65918     233.030       4.548416E-07    1.292152E-10    5.488122E-10    1.957655E-10    2.909291E-09    1.340467E-03
   285.96138     226.581       1.754073E-07    1.689786E-10    4.851972E-10    1.592830E-10    2.571369E-09    1.188941E-03
   245.51006     220.135       7.196743E-08    2.315237E-10    4.252700E-10    1.275234E-10    2.261103E-09    1.051064E-03
   210.06817     216.751       3.251934E-08    3.051085E-10    3.645353E-10    9.824970E-11    1.950842E-09    9.130680E-04
   179.53102     216.700       1.505169E-08    3.458623E-10    3.070182E-10    7.108157E-11    1.652683E-09    7.805105E-04
   153.43468     216.700       7.221062E-09    3.778518E-10    2.583660E-10    4.884251E-11    1.397495E-09    6.672453E-04
   131.13043     216.700       3.999863E-09    4.199250E-10    2.171212E-10    3.285087E-11    1.180327E-09    5.705235E-04
   112.06976     216.700       2.802292E-09    4.728964E-10    1.817616E-10    2.195268E-11    9.950351E-10    4.875918E-04
    95.80437     216.700       2.076486E-09    5.452790E-10    1.506931E-10    1.483119E-11    8.345110E-10    4.156923E-04
    81.90707     216.700       1.750470E-09    6.302690E-10    1.244472E-10    1.019065E-11    7.012296E-10    3.562220E-04
    70.01657     216.700       1.495952E-09    7.028282E-10    1.013964E-10    6.872726E-12    5.851874E-10    3.044787E-04
    59.85756     216.700       1.290752E-09    7.653913E-10    8.155873E-11    4.806764E-12    4.839782E-10    2.601922E-04
    51.18585     217.138       1.118874E-09    7.951922E-10    6.485233E-11    3.646004E-12    3.951873E-10    2.219822E-04
    43.79152     218.087       9.740916E-10    8.070232E-10    5.148977E-11    2.986132E-12    3.186251E-10    1.892995E-04
    37.49526     219.087       8.517477E-10    8.043406E-10    4.144669E-11    2.615681E-12    2.541421E-10    1.610385E-04
    32.13148     220.087       7.479146E-10    7.730781E-10    3.383636E-11    2.380523E-12    2.033923E-10    1.374813E-04
    27.55090     221.087       6.562099E-10    7.322563E-10    2.734138E-11    2.178521E-12    1.636110E-10    1.175210E-04
    21.20532     222.723       1.289554E-09    1.560298E-09    4.811445E-11    4.431731E-12    2.934992E-10    2.240424E-04
    14.52942     225.170       9.034389E-10    1.197005E-09    2.931438E-11    3.210002E-12    1.852564E-10    1.518901E-04
     9.85779     228.131       6.736075E-10    9.791289E-10    1.833448E-11    2.506257E-12    1.234588E-10    1.102515E-04
     6.81544     233.067       3.925902E-10    6.132507E-10    8.503169E-12    1.554997E-12    6.383381E-11    6.308320E-05
     4.90480     239.523       2.805573E-10    4.455656E-10    4.588735E-12    1.201657E-12    4.023751E-11    4.450249E-05
     3.47132     246.416       2.278200E-10    3.457188E-10    2.590659E-12    1.073980E-12    2.813986E-11    3.569092E-05
     2.44311     253.656       1.474442E-10    1.966273E-10    1.067255E-12    7.689877E-13    1.494695E-11    2.264985E-05
     1.76020     260.561       1.055937E-10    1.170933E-10    4.483592E-13    6.152601E-13    8.447906E-12    1.590369E-05
     1.28005     267.230       7.521252E-11    6.756815E-11    1.840096E-13    4.978996E-13    4.630477E-12    1.121684E-05
     0.93631     270.647       5.486223E-11    3.797352E-11    7.523829E-14    4.330247E-13    2.569967E-12    8.179887E-06
     0.59196     266.274       6.914522E-11    3.366917E-11    5.305618E-14    7.374600E-13    2.539194E-12    1.044749E-05
     0.31070     254.669       3.660213E-11    1.101567E-11    1.912410E-14    6.265416E-13    1.172052E-12    5.782058E-06
     0.15766     240.952       1.784268E-11    3.653748E-12    7.197476E-15    5.632545E-13    5.939201E-13    3.092344E-06
     0.07715     227.296       7.969806E-12    1.073059E-12    2.763401E-15    4.891167E-13    3.071573E-13    1.599265E-06
     0.03629     214.730       3.263674E-12    2.832369E-13    1.054341E-15    4.589120E-13    1.527340E-13    7.952350E-07
     0.01633     204.179       1.215474E-12    1.326145E-13    3.952750E-16    4.927995E-13    7.323132E-14    3.812910E-07
     0.00705     194.445       3.806939E-13    8.446031E-14    1.417487E-16    4.915016E-13    3.281554E-14    1.708596E-07
     0.00296     188.048       1.068817E-13    5.565836E-14    5.022657E-17    4.137824E-13    1.384981E-14    7.418882E-08
     0.00122     187.539       2.814589E-14    2.746771E-14    1.717038E-17    3.012952E-13    5.325550E-15    3.059008E-08
     0.00051     191.264       7.683073E-15    9.144225E-15    5.876743E-18    2.089055E-13    2.012692E-15    1.245913E-08
     0.00022     201.037       2.384548E-15    1.995688E-15    1.984421E-18    1.294420E-13    7.375849E-16    4.947377E-09
     0.00010     222.515       8.467717E-16    3.612477E-16    7.192801E-19    7.724135E-14    2.792191E-16    2.085839E-09
     0.00005     267.075       2.957972E-16    3.343957E-17    2.594142E-19    4.196262E-14    8.938919E-17    8.671982E-10
     0.00003     327.658       1.191976E-16    1.570531E-18    1.073905E-19    2.444316E-14    2.482074E-17    4.104364E-10




! ===============================
! EFFECTIVE_LAYER_TP routine test
! ===============================

      P(Bot)      P(Top)      P(Eff)        PL        T(Bot)      T(Top)      T(Eff)        TL
   1013.000000  898.800000  955.677038  954.761974  288.200000  281.700000  284.987205  285.015865
    898.800000  795.000000  846.693487  845.838752  281.700000  275.200000  278.488696  278.517525
    795.000000  701.200000  747.908989  747.118883  275.200000  268.700000  271.989605  272.019081
    701.200000  616.600000  658.724722  657.993813  268.700000  262.200000  265.491337  265.520656
    616.600000  540.500000  578.389065  577.714880  262.200000  255.700000  258.992831  259.022334
    540.500000  472.200000  506.202506  505.581335  255.700000  249.200000  252.494453  252.524124
    472.200000  411.100000  441.514821  440.944693  249.200000  242.700000  245.995802  246.026007
    411.100000  356.500000  383.676197  383.151834  242.700000  236.200000  239.497412  239.528137
    356.500000  308.000000  332.136966  331.659180  236.200000  229.700000  232.998607  233.030186
    308.000000  265.000000  286.398686  285.961377  229.700000  223.300000  226.549889  226.581170
    265.000000  227.000000  245.906475  245.510060  223.300000  216.800000  220.101763  220.134840
    227.000000  194.000000  210.498715  210.068175  216.800000  216.700000  216.751264  216.751332
    194.000000  165.800000  179.899993  179.531023  216.700000  216.700000  216.699982  216.700000
    165.800000  141.700000  153.749996  153.434681  216.700000  216.700000  216.699989  216.700000
    141.700000  121.100000  131.399999  131.130430  216.700000  216.700000  216.699998  216.700000
    121.100000  103.500000  112.299999  112.069762  216.700000  216.700000  216.699998  216.700000
    103.500000   88.500000   96.000000   95.804369  216.700000  216.700000  216.700000  216.700000
     88.500000   75.650000   82.075000   81.907071  216.700000  216.700000  216.700000  216.700000
     75.650000   64.670000   70.160000   70.016568  216.700000  216.700000  216.700000  216.700000
     64.670000   55.290000   59.980000   59.857559  216.700000  216.700000  216.700000  216.700000
     55.290000   47.290000   51.292761   51.185847  216.700000  217.600000  217.137662  217.138062
     47.290000   40.470000   43.882604   43.791525  217.600000  218.600000  218.086264  218.086782
     40.470000   34.670000   37.572204   37.495265  218.600000  219.600000  219.086355  219.086871
     34.670000   29.720000   32.196873   32.131478  219.600000  220.600000  220.086411  220.086925
     29.720000   25.490000   27.606593   27.550901  220.600000  221.600000  221.086458  221.086969
     25.490000   17.430000   21.467200   21.205317  221.600000  224.000000  222.719877  222.722734
     17.430000   11.970000   14.705026   14.529417  224.000000  226.500000  225.167293  225.170420
     11.970000    8.010000    9.995032    9.857790  226.500000  230.000000  228.124254  228.130915
      8.010000    5.746000    6.883237    6.815442  230.000000  236.500000  233.040330  233.066728
      5.746000    4.150000    4.951538    4.904799  236.500000  242.900000  239.498393  239.523244
      4.150000    2.871000    3.513725    3.471318  242.900000  250.400000  246.382421  246.415583
      2.871000    2.060000    2.467330    2.443107  250.400000  257.300000  253.628345  253.655633
      2.060000    1.491000    1.776750    1.760199  257.300000  264.200000  260.534135  260.560719
      1.491000    1.090000    1.291297    1.280049  264.200000  270.600000  267.207758  267.229881
      1.090000    0.797800    0.943909    0.936313  270.600000  270.700000  270.647397  270.647358
      0.797800    0.425000    0.610257    0.591963  270.700000  260.800000  266.205415  266.274371
      0.425000    0.219000    0.321079    0.310701  260.800000  247.000000  254.533494  254.668558
      0.219000    0.109000    0.163485    0.157655  247.000000  233.300000  240.811719  240.952422
      0.109000    0.052200    0.080318    0.077146  233.300000  219.600000  227.147051  227.296088
      0.052200    0.024000    0.037979    0.036292  219.600000  208.400000  214.622051  214.729667
      0.024000    0.010500    0.017197    0.016330  208.400000  198.600000  204.090480  204.178636
      0.010500    0.004460    0.007455    0.007054  198.600000  188.900000  194.354611  194.445223
      0.004460    0.001840    0.003148    0.002959  188.900000  186.900000  188.042207  188.048319
      0.001840    0.000760    0.001301    0.001221  186.900000  188.400000  187.538939  187.538835
      0.000760    0.000320    0.000541    0.000509  188.400000  195.100000  191.234943  191.263552
      0.000320    0.000145    0.000233    0.000221  195.100000  208.800000  200.904201  201.036817
      0.000145    0.000071    0.000109    0.000104  208.800000  240.000000  221.850902  222.514749
      0.000071    0.000040    0.000056    0.000054  240.000000  300.000000  264.968930  267.074974
      0.000040    0.000025    0.000033    0.000032  300.000000  360.000000  325.923571  327.658466
